SpectraSuite Data File
++++++++++++++++++++++++++++++++++++
Date: Sun Sep 13 18:44:26 EDT 2015
User: lab3
Dark Spectrum Present: No
Reference Spectrum Present: No
Number of Sampled Component Spectra: 1
Spectrometers: USB2E7196
Integration Time (usec): 65000 (USB2E7196)
Spectra Averaged: 200 (USB2E7196)
Boxcar Smoothing: 10 (USB2E7196)
Correct for Electrical Dark: No (USB2E7196)
Strobe/Lamp Enabled: No (USB2E7196)
Correct for Detector Non-linearity: No (USB2E7196)
Correct for Stray Light: No (USB2E7196)
Number of Pixels in Processed Spectrum: 2048
>>>>>Begin Processed Spectral Data<<<<<
339.09	0.00
339.48	215.44
339.86	216.84
340.24	218.00
340.63	219.77
341.01	223.64
341.39	222.08
341.78	223.70
342.16	224.92
342.54	225.62
342.93	213.83
343.31	224.63
343.69	225.16
344.07	225.62
344.46	226.08
344.84	226.50
345.22	226.72
345.60	227.01
345.99	227.24
346.37	227.39
346.75	227.48
347.13	227.58
347.52	227.68
347.90	227.80
348.28	227.85
348.66	227.93
349.05	227.94
349.43	228.01
349.81	228.10
350.19	228.17
350.57	228.28
350.96	228.40
351.34	228.51
351.72	228.61
352.10	228.75
352.48	228.82
352.87	228.85
353.25	228.89
353.63	228.93
354.01	228.99
354.39	229.07
354.77	229.16
355.15	229.26
355.54	229.29
355.92	229.30
356.30	229.37
356.68	229.54
357.06	229.61
357.44	229.65
357.82	229.68
358.20	229.86
358.58	229.92
358.97	229.97
359.35	230.08
359.73	230.17
360.11	230.20
360.49	230.25
360.87	230.29
361.25	230.33
361.63	230.44
362.01	230.47
362.39	230.48
362.77	230.50
363.15	230.53
363.53	230.55
363.91	230.59
364.29	230.58
364.67	230.42
365.05	230.41
365.43	230.45
365.81	230.49
366.19	230.46
366.57	230.51
366.95	230.50
367.33	230.44
367.71	230.42
368.09	230.42
368.47	230.41
368.85	230.40
369.23	230.41
369.61	230.32
369.99	230.35
370.37	230.34
370.75	230.45
371.13	230.42
371.51	230.35
371.89	230.32
372.27	230.28
372.65	230.25
373.03	230.19
373.41	230.10
373.78	230.02
374.16	229.84
374.54	229.71
374.92	229.63
375.30	229.55
375.68	229.42
376.06	229.37
376.44	229.26
376.82	229.20
377.19	229.14
377.57	229.07
377.95	228.94
378.33	228.84
378.71	228.61
379.09	228.52
379.47	228.49
379.84	228.37
380.22	228.30
380.60	228.19
380.98	228.14
381.36	228.08
381.73	227.97
382.11	227.92
382.49	227.86
382.87	227.77
383.25	227.70
383.62	227.88
384.00	227.77
384.38	227.73
384.76	227.70
385.13	227.69
385.51	227.62
385.89	227.58
386.27	227.54
386.64	227.52
387.02	227.47
387.40	227.40
387.78	227.38
388.15	227.37
388.53	227.32
388.91	227.30
389.29	227.27
389.66	227.32
390.04	227.29
390.42	227.34
390.79	227.35
391.17	227.35
391.55	227.15
391.92	227.19
392.30	227.25
392.68	227.23
393.05	227.23
393.43	227.27
393.81	227.31
394.18	227.32
394.56	227.38
394.94	227.50
395.31	227.55
395.69	227.68
396.06	227.77
396.44	227.88
396.82	227.94
397.19	228.11
397.57	228.19
397.95	228.32
398.32	228.33
398.70	228.45
399.07	228.62
399.45	228.73
399.82	228.82
400.20	228.92
400.58	229.09
400.95	229.17
401.33	229.35
401.70	229.65
402.08	229.86
402.45	230.02
402.83	230.23
403.20	230.45
403.58	230.64
403.95	230.88
404.33	231.15
404.71	231.43
405.08	231.80
405.46	232.07
405.83	232.40
406.21	232.75
406.58	233.11
406.96	233.45
407.33	233.84
407.70	234.31
408.08	234.87
408.45	235.36
408.83	235.91
409.20	236.41
409.58	236.83
409.95	237.41
410.33	238.06
410.70	238.63
411.08	239.32
411.45	240.02
411.82	240.77
412.20	241.60
412.57	242.58
412.95	243.32
413.32	244.34
413.69	245.34
414.07	246.41
414.44	247.58
414.82	248.78
415.19	250.17
415.56	251.55
415.94	253.00
416.31	254.62
416.68	256.24
417.06	258.09
417.43	259.84
417.81	261.83
418.18	263.89
418.55	266.13
418.93	268.46
419.30	270.88
419.67	273.45
420.04	276.10
420.42	278.84
420.79	282.01
421.16	285.18
421.54	288.45
421.91	291.82
422.28	295.34
422.66	299.15
423.03	302.80
423.40	306.61
423.77	310.69
424.15	314.89
424.52	319.24
424.89	323.95
425.26	328.62
425.64	333.00
426.01	337.87
426.38	342.85
426.75	348.00
427.13	353.28
427.50	358.81
427.87	364.55
428.24	370.34
428.61	375.88
428.99	381.93
429.36	388.52
429.73	394.89
430.10	401.17
430.47	407.63
430.85	414.27
431.22	421.42
431.59	428.82
431.96	435.99
432.33	443.94
432.70	451.55
433.08	460.57
433.45	469.08
433.82	477.45
434.19	486.89
434.56	496.15
434.93	505.11
435.30	513.96
435.68	524.05
436.05	533.92
436.42	543.83
436.79	552.85
437.16	562.60
437.53	573.07
437.90	583.61
438.27	593.80
438.64	604.92
439.01	614.95
439.38	624.07
439.75	632.96
440.13	643.03
440.50	652.52
440.87	660.07
441.24	668.28
441.61	677.29
441.98	683.83
442.35	691.66
442.72	699.67
443.09	707.29
443.46	712.03
443.83	715.54
444.20	718.49
444.57	722.75
444.94	725.26
445.31	727.81
445.68	729.95
446.05	731.52
446.42	730.95
446.79	730.24
447.16	729.58
447.53	728.95
447.90	725.70
448.27	722.63
448.64	718.04
449.01	714.91
449.37	708.51
449.74	702.68
450.11	695.18
450.48	686.97
450.85	678.63
451.22	671.59
451.59	664.72
451.96	658.39
452.33	649.41
452.70	641.26
453.07	631.45
453.43	621.62
453.80	612.10
454.17	602.96
454.54	594.52
454.91	585.11
455.28	576.24
455.65	567.90
456.02	559.14
456.38	552.01
456.75	542.82
457.12	535.51
457.49	528.13
457.86	521.12
458.23	514.99
458.59	508.34
458.96	501.42
459.33	495.36
459.70	489.24
460.07	484.60
460.43	479.12
460.80	474.02
461.17	469.59
461.54	464.86
461.91	460.39
462.27	455.82
462.64	452.08
463.01	447.83
463.38	443.57
463.74	439.67
464.11	436.30
464.48	433.24
464.85	429.92
465.21	427.44
465.58	424.68
465.95	421.46
466.32	418.95
466.68	416.53
467.05	414.03
467.42	411.63
467.78	409.03
468.15	406.70
468.52	405.00
468.88	402.70
469.25	400.57
469.62	398.95
469.98	397.15
470.35	395.60
470.72	394.18
471.08	392.67
471.45	391.44
471.82	390.07
472.18	388.65
472.55	387.79
472.92	386.67
473.28	385.82
473.65	384.89
474.02	383.97
474.38	383.25
474.75	382.93
475.11	382.37
475.48	382.23
475.85	382.03
476.21	382.01
476.58	382.10
476.94	382.51
477.31	382.80
477.67	383.13
478.04	383.60
478.41	384.21
478.77	385.09
479.14	385.76
479.50	386.71
479.87	387.89
480.23	389.08
480.60	390.23
480.96	391.43
481.33	393.11
481.69	394.76
482.06	396.40
482.42	397.98
482.79	399.86
483.15	401.95
483.52	404.36
483.88	406.65
484.25	409.08
484.61	411.55
484.98	414.27
485.34	417.32
485.71	420.51
486.07	423.87
486.44	427.26
486.80	430.98
487.17	434.85
487.53	439.06
487.90	443.45
488.26	448.23
488.62	453.25
488.99	458.34
489.35	463.69
489.72	469.40
490.08	475.41
490.44	481.56
490.81	488.03
491.17	494.62
491.54	501.72
491.90	508.98
492.26	516.84
492.63	524.97
492.99	533.48
493.36	542.21
493.72	551.46
494.08	560.91
494.45	570.91
494.81	581.38
495.17	592.10
495.54	603.42
495.90	615.24
496.26	627.36
496.63	639.69
496.99	652.58
497.35	666.11
497.72	680.10
498.08	694.49
498.44	709.23
498.80	724.90
499.17	740.97
499.53	757.50
499.89	774.51
500.26	791.93
500.62	809.77
500.98	828.79
501.34	848.03
501.71	868.12
502.07	888.54
502.43	909.46
502.79	931.02
503.16	953.28
503.52	975.72
503.88	998.89
504.24	1022.73
504.60	1046.99
504.97	1072.04
505.33	1097.61
505.69	1124.36
506.05	1151.46
506.41	1178.43
506.78	1205.81
507.14	1234.08
507.50	1263.09
507.86	1292.71
508.22	1322.79
508.59	1352.67
508.95	1383.51
509.31	1415.09
509.67	1447.98
510.03	1481.09
510.39	1514.16
510.75	1547.32
511.12	1580.87
511.48	1614.99
511.84	1649.36
512.20	1684.11
512.56	1719.93
512.92	1755.76
513.28	1791.13
513.64	1826.92
514.00	1863.56
514.37	1900.85
514.73	1937.99
515.09	1974.83
515.45	2011.81
515.81	2048.88
516.17	2085.75
516.53	2122.31
516.89	2158.80
517.25	2195.19
517.61	2231.66
517.97	2268.95
518.33	2305.62
518.69	2342.20
519.05	2379.03
519.41	2416.04
519.77	2453.38
520.13	2489.09
520.49	2525.22
520.85	2561.32
521.21	2597.30
521.57	2633.59
521.93	2668.21
522.29	2703.90
522.65	2738.92
523.01	2773.71
523.37	2807.68
523.73	2842.46
524.09	2876.79
524.45	2911.02
524.81	2944.46
525.17	2978.03
525.53	3010.06
525.89	3042.36
526.25	3074.77
526.61	3105.44
526.97	3135.85
527.33	3165.98
527.68	3196.60
528.04	3226.14
528.40	3255.31
528.76	3284.24
529.12	3312.17
529.48	3340.93
529.84	3366.08
530.20	3391.89
530.56	3416.60
530.91	3442.06
531.27	3467.36
531.63	3492.01
531.99	3515.63
532.35	3537.41
532.71	3558.97
533.07	3581.15
533.42	3601.42
533.78	3622.27
534.14	3642.98
534.50	3662.93
534.86	3683.51
535.21	3700.25
535.57	3716.94
535.93	3733.23
536.29	3748.18
536.65	3762.88
537.00	3776.04
537.36	3791.46
537.72	3804.27
538.08	3816.94
538.44	3828.39
538.79	3838.92
539.15	3847.25
539.51	3854.70
539.87	3862.05
540.22	3866.58
540.58	3871.94
540.94	3878.06
541.29	3881.86
541.65	3884.93
542.01	3887.54
542.37	3887.24
542.72	3889.82
543.08	3890.69
543.44	3891.12
543.79	3890.75
544.15	3889.41
544.51	3887.53
544.87	3883.96
545.22	3880.72
545.58	3876.48
545.94	3871.38
546.29	3865.45
546.65	3860.36
547.01	3854.97
547.36	3850.09
547.72	3845.35
548.07	3838.11
548.43	3829.88
548.79	3821.75
549.14	3814.06
549.50	3805.67
549.86	3797.34
550.21	3786.27
550.57	3776.20
550.92	3764.73
551.28	3752.38
551.64	3740.06
551.99	3728.75
552.35	3717.02
552.70	3704.87
553.06	3693.22
553.41	3681.00
553.77	3667.46
554.13	3653.52
554.48	3639.34
554.84	3623.98
555.19	3609.04
555.55	3593.99
555.90	3578.82
556.26	3564.22
556.61	3548.64
556.97	3531.76
557.32	3514.81
557.68	3498.24
558.03	3480.82
558.39	3464.18
558.74	3449.07
559.10	3432.75
559.45	3415.53
559.81	3398.27
560.16	3380.75
560.52	3363.26
560.87	3347.16
561.23	3330.21
561.58	3313.51
561.94	3295.82
562.29	3277.74
562.64	3260.14
563.00	3242.25
563.35	3224.82
563.71	3206.72
564.06	3188.39
564.42	3170.57
564.77	3152.55
565.12	3135.53
565.48	3118.34
565.83	3101.32
566.19	3083.96
566.54	3066.38
566.89	3047.65
567.25	3029.27
567.60	3011.82
567.96	2993.82
568.31	2974.03
568.66	2954.71
569.02	2936.20
569.37	2919.08
569.72	2902.38
570.08	2885.54
570.43	2868.22
570.78	2850.30
571.14	2831.38
571.49	2812.95
571.84	2795.14
572.20	2776.76
572.55	2758.12
572.90	2739.05
573.26	2719.45
573.61	2699.42
573.96	2679.62
574.31	2660.62
574.67	2642.27
575.02	2622.49
575.37	2603.31
575.72	2584.40
576.08	2565.58
576.43	2545.34
576.78	2524.74
577.13	2504.98
577.49	2484.76
577.84	2464.82
578.19	2444.59
578.54	2424.91
578.90	2404.67
579.25	2384.41
579.60	2365.04
579.95	2345.82
580.30	2328.00
580.66	2309.96
581.01	2291.26
581.36	2273.01
581.71	2255.22
582.06	2236.97
582.42	2219.35
582.77	2201.47
583.12	2184.73
583.47	2168.37
583.82	2152.56
584.17	2135.98
584.53	2119.14
584.88	2102.45
585.23	2086.01
585.58	2069.93
585.93	2053.90
586.28	2038.56
586.63	2023.01
586.98	2007.02
587.34	1991.23
587.69	1974.11
588.04	1957.50
588.39	1942.01
588.74	1926.24
589.09	1911.02
589.44	1895.05
589.79	1880.10
590.14	1865.19
590.49	1849.64
590.84	1834.33
591.19	1819.49
591.54	1804.51
591.89	1789.56
592.25	1775.20
592.60	1760.24
592.95	1746.02
593.30	1731.82
593.65	1717.67
594.00	1703.67
594.35	1690.27
594.70	1675.82
595.05	1662.72
595.40	1649.54
595.75	1636.09
596.10	1623.05
596.45	1609.54
596.80	1596.80
597.15	1583.58
597.50	1570.56
597.85	1558.23
598.19	1545.89
598.54	1533.32
598.89	1521.58
599.24	1510.01
599.59	1498.17
599.94	1487.46
600.29	1476.23
600.64	1464.86
600.99	1452.78
601.34	1441.41
601.69	1429.70
602.04	1419.26
602.39	1408.59
602.74	1398.20
603.08	1387.91
603.43	1377.40
603.78	1367.00
604.13	1356.64
604.48	1346.28
604.83	1335.82
605.18	1325.00
605.53	1314.40
605.87	1303.83
606.22	1293.33
606.57	1282.86
606.92	1272.04
607.27	1261.08
607.62	1250.57
607.96	1240.47
608.31	1231.37
608.66	1221.98
609.01	1212.70
609.36	1203.52
609.70	1193.68
610.05	1183.60
610.40	1173.78
610.75	1164.37
611.10	1155.52
611.44	1146.24
611.79	1137.43
612.14	1128.28
612.49	1118.99
612.83	1110.30
613.18	1101.75
613.53	1093.25
613.88	1084.51
614.22	1076.55
614.57	1068.29
614.92	1059.99
615.27	1051.87
615.61	1043.64
615.96	1035.35
616.31	1027.26
616.65	1018.95
617.00	1011.13
617.35	1003.56
617.70	995.90
618.04	988.13
618.39	980.19
618.74	972.88
619.08	965.18
619.43	957.83
619.78	950.79
620.12	943.44
620.47	936.59
620.82	929.53
621.16	922.63
621.51	915.39
621.85	908.22
622.20	901.11
622.55	894.31
622.89	887.59
623.24	881.03
623.59	874.43
623.93	867.97
624.28	861.72
624.62	855.41
624.97	849.30
625.32	843.01
625.66	836.42
626.01	829.93
626.35	823.67
626.70	817.43
627.04	811.26
627.39	805.07
627.73	799.00
628.08	793.31
628.43	787.59
628.77	781.98
629.12	776.53
629.46	771.29
629.81	765.75
630.15	759.97
630.50	754.44
630.84	749.12
631.19	743.90
631.53	738.76
631.88	733.61
632.22	728.38
632.57	723.76
632.91	719.07
633.26	714.17
633.60	709.39
633.95	704.85
634.29	700.13
634.64	695.49
634.98	690.37
635.32	685.54
635.67	681.00
636.01	676.38
636.36	671.85
636.70	667.49
637.05	663.07
637.39	658.89
637.73	654.52
638.08	650.20
638.42	646.08
638.77	641.66
639.11	637.19
639.45	632.90
639.80	628.43
640.14	624.24
640.49	620.02
640.83	615.93
641.17	611.74
641.52	607.56
641.86	603.48
642.20	599.83
642.55	595.79
642.89	591.74
643.23	587.94
643.58	584.50
643.92	580.74
644.26	577.12
644.61	573.52
644.95	569.85
645.29	566.07
645.64	562.13
645.98	558.54
646.32	555.11
646.66	551.59
647.01	548.09
647.35	544.79
647.69	541.46
648.04	538.04
648.38	534.64
648.72	531.42
649.06	528.17
649.41	524.84
649.75	521.61
650.09	518.44
650.43	515.26
650.78	511.93
651.12	508.64
651.46	505.40
651.80	502.28
652.14	499.32
652.49	496.46
652.83	493.63
653.17	490.64
653.51	487.82
653.85	485.15
654.20	482.35
654.54	479.36
654.88	476.62
655.22	473.99
655.56	471.33
655.90	468.61
656.25	465.91
656.59	463.30
656.93	460.83
657.27	458.39
657.61	455.83
657.95	453.43
658.29	451.06
658.64	448.69
658.98	446.25
659.32	443.78
659.66	441.44
660.00	439.09
660.34	436.86
660.68	434.44
661.02	431.90
661.36	429.58
661.70	427.40
662.05	425.20
662.39	423.00
662.73	420.94
663.07	418.94
663.41	417.00
663.75	414.94
664.09	412.92
664.43	410.83
664.77	408.84
665.11	406.73
665.45	404.71
665.79	402.77
666.13	400.85
666.47	398.95
666.81	397.00
667.15	395.06
667.49	393.26
667.83	391.54
668.17	389.83
668.51	388.11
668.85	386.44
669.19	384.82
669.53	383.06
669.87	381.29
670.21	379.58
670.55	377.87
670.89	376.36
671.23	374.82
671.57	373.33
671.91	371.85
672.25	370.45
672.58	369.04
672.92	367.56
673.26	366.16
673.60	364.73
673.94	363.25
674.28	361.85
674.62	360.42
674.96	359.05
675.30	357.78
675.64	356.48
675.97	355.11
676.31	353.69
676.65	352.34
676.99	351.09
677.33	349.70
677.67	348.44
678.01	347.05
678.34	345.69
678.68	344.43
679.02	343.13
679.36	341.90
679.70	340.62
680.04	339.37
680.37	338.14
680.71	336.97
681.05	335.91
681.39	334.75
681.73	333.53
682.06	332.31
682.40	331.15
682.74	330.04
683.08	328.99
683.42	327.93
683.75	326.91
684.09	325.75
684.43	324.70
684.77	323.60
685.10	322.57
685.44	321.58
685.78	320.53
686.12	319.59
686.45	318.57
686.79	317.57
687.13	316.62
687.46	315.58
687.80	314.61
688.14	313.59
688.48	312.70
688.81	311.81
689.15	310.97
689.49	310.00
689.82	309.05
690.16	308.02
690.50	307.06
690.83	306.12
691.17	305.22
691.51	304.31
691.84	303.49
692.18	302.58
692.52	301.64
692.85	300.76
693.19	299.91
693.52	299.07
693.86	298.23
694.20	297.40
694.53	296.68
694.87	295.85
695.21	295.04
695.54	294.24
695.88	293.44
696.21	292.56
696.55	291.83
696.88	291.08
697.22	290.34
697.56	289.63
697.89	288.87
698.23	288.12
698.56	287.37
698.90	286.66
699.23	285.95
699.57	285.31
699.90	284.62
700.24	283.90
700.58	283.20
700.91	282.61
701.25	282.13
701.58	281.56
701.92	281.02
702.25	280.40
702.59	279.72
702.92	279.08
703.26	278.49
703.59	277.85
703.93	277.36
704.26	276.79
704.60	276.18
704.93	275.59
705.26	275.01
705.60	274.51
705.93	273.92
706.27	273.44
706.60	272.91
706.94	272.45
707.27	271.91
707.61	271.41
707.94	270.88
708.27	270.19
708.61	269.56
708.94	268.96
709.28	268.48
709.61	267.99
709.94	267.56
710.28	267.12
710.61	266.73
710.95	266.19
711.28	265.88
711.61	265.45
711.95	265.09
712.28	264.69
712.61	264.25
712.95	263.94
713.28	263.59
713.61	263.19
713.95	262.77
714.28	262.39
714.61	262.01
714.95	261.61
715.28	261.27
715.61	260.94
715.95	260.66
716.28	260.32
716.61	260.05
716.95	259.73
717.28	259.38
717.61	259.04
717.94	258.70
718.28	258.23
718.61	257.91
718.94	257.54
719.27	257.21
719.61	256.94
719.94	256.59
720.27	256.22
720.60	255.91
720.94	255.62
721.27	255.34
721.60	255.07
721.93	254.81
722.27	254.60
722.60	254.33
722.93	254.00
723.26	253.74
723.59	253.46
723.93	253.20
724.26	252.98
724.59	252.71
724.92	252.49
725.25	252.31
725.59	252.08
725.92	251.88
726.25	251.65
726.58	251.39
726.91	251.15
727.24	250.93
727.57	250.67
727.91	250.40
728.24	250.18
728.57	249.93
728.90	249.72
729.23	249.42
729.56	249.26
729.89	249.05
730.22	248.83
730.55	248.58
730.89	248.35
731.22	248.08
731.55	247.87
731.88	247.65
732.21	247.39
732.54	247.18
732.87	246.96
733.20	246.75
733.53	246.54
733.86	246.33
734.19	246.11
734.52	245.96
734.85	245.88
735.18	245.66
735.51	245.50
735.84	245.32
736.17	245.17
736.50	244.88
736.83	244.90
737.16	244.72
737.49	244.51
737.82	244.32
738.15	244.17
738.48	243.96
738.81	243.74
739.14	243.54
739.47	243.34
739.80	243.16
740.13	243.00
740.46	242.80
740.79	242.60
741.12	242.40
741.45	242.17
741.78	241.89
742.11	241.78
742.44	241.56
742.77	241.39
743.10	241.19
743.43	241.05
743.75	240.71
744.08	240.80
744.41	240.66
744.74	240.50
745.07	240.33
745.40	240.23
745.73	240.16
746.06	240.04
746.39	239.92
746.71	239.76
747.04	239.59
747.37	239.43
747.70	239.36
748.03	239.23
748.36	239.16
748.68	239.06
749.01	238.88
749.34	238.76
749.67	238.65
750.00	238.57
750.33	238.58
750.65	238.48
750.98	238.10
751.31	237.97
751.64	237.88
751.97	237.89
752.29	237.73
752.62	237.56
752.95	237.42
753.28	237.29
753.60	237.20
753.93	237.18
754.26	237.11
754.59	236.95
754.91	236.87
755.24	236.75
755.57	236.71
755.90	236.63
756.22	236.53
756.55	236.44
756.88	236.31
757.20	236.10
757.53	235.94
757.86	235.87
758.19	235.81
758.51	235.71
758.84	235.52
759.17	235.46
759.49	235.39
759.82	235.43
760.15	235.38
760.47	235.31
760.80	235.18
761.13	235.16
761.45	235.09
761.78	235.01
762.11	234.97
762.43	234.84
762.76	234.76
763.08	234.73
763.41	234.67
763.74	234.64
764.06	234.58
764.39	234.54
764.71	234.49
765.04	234.43
765.37	234.36
765.69	234.32
766.02	234.25
766.34	234.18
766.67	234.06
767.00	234.03
767.32	234.06
767.65	234.10
767.97	234.02
768.30	233.97
768.62	233.92
768.95	233.81
769.27	233.74
769.60	233.72
769.92	233.62
770.25	233.54
770.57	233.44
770.90	233.38
771.22	233.28
771.55	233.23
771.87	233.17
772.20	233.12
772.52	233.20
772.85	233.35
773.17	233.29
773.50	233.20
773.82	233.12
774.15	232.94
774.47	232.77
774.80	232.70
775.12	232.63
775.45	232.57
775.77	232.53
776.09	232.48
776.42	232.41
776.74	232.37
777.07	232.32
777.39	232.24
777.72	232.18
778.04	232.16
778.36	232.08
778.69	232.02
779.01	231.97
779.33	231.75
779.66	231.48
779.98	231.40
780.31	231.37
780.63	231.39
780.95	231.39
781.28	231.33
781.60	231.24
781.92	231.18
782.25	231.11
782.57	231.05
782.89	231.00
783.22	230.96
783.54	230.92
783.86	230.89
784.19	230.85
784.51	230.86
784.83	230.81
785.16	230.77
785.48	230.74
785.80	230.69
786.12	230.67
786.45	230.66
786.77	230.65
787.09	230.60
787.42	230.49
787.74	230.46
788.06	230.46
788.38	230.44
788.71	230.42
789.03	230.44
789.35	230.47
789.67	230.43
789.99	230.41
790.32	230.36
790.64	230.34
790.96	230.49
791.28	230.40
791.61	230.36
791.93	230.36
792.25	230.34
792.57	230.46
792.89	230.42
793.21	230.39
793.54	230.36
793.86	230.32
794.18	230.32
794.50	230.26
794.82	230.23
795.14	230.27
795.47	230.27
795.79	230.25
796.11	230.19
796.43	230.17
796.75	230.14
797.07	230.16
797.39	230.16
797.71	230.01
798.04	230.02
798.36	230.01
798.68	230.00
799.00	230.02
799.32	229.93
799.64	229.98
799.96	229.99
800.28	230.03
800.60	230.05
800.92	230.06
801.24	230.07
801.56	230.10
801.89	230.07
802.21	230.09
802.53	230.06
802.85	230.09
803.17	230.18
803.49	230.18
803.81	230.17
804.13	230.13
804.45	230.12
804.77	230.13
805.09	230.13
805.41	230.09
805.73	230.04
806.05	229.99
806.37	229.96
806.69	229.93
807.01	229.90
807.33	229.88
807.65	229.81
807.97	229.88
808.28	229.82
808.60	229.80
808.92	229.77
809.24	229.86
809.56	229.80
809.88	229.70
810.20	229.67
810.52	229.64
810.84	229.61
811.16	229.56
811.48	229.53
811.80	229.57
812.12	229.57
812.43	229.56
812.75	229.55
813.07	229.50
813.39	229.48
813.71	229.45
814.03	229.41
814.35	229.40
814.67	229.29
814.98	229.28
815.30	229.25
815.62	229.19
815.94	229.05
816.26	229.03
816.58	228.98
816.89	228.98
817.21	228.94
817.53	228.95
817.85	228.93
818.17	228.89
818.48	228.80
818.80	228.78
819.12	228.74
819.44	228.70
819.76	228.66
820.07	228.64
820.39	228.60
820.71	228.61
821.03	228.58
821.34	228.56
821.66	228.55
821.98	228.54
822.30	228.50
822.61	228.58
822.93	228.55
823.25	228.53
823.57	228.49
823.88	228.50
824.20	228.44
824.52	228.44
824.83	228.41
825.15	228.38
825.47	228.34
825.79	228.37
826.10	228.32
826.42	228.30
826.74	228.31
827.05	228.30
827.37	228.29
827.69	228.26
828.00	228.26
828.32	228.23
828.64	228.20
828.95	228.28
829.27	228.22
829.58	228.20
829.90	228.24
830.22	228.25
830.53	228.22
830.85	228.22
831.17	228.18
831.48	228.19
831.80	228.21
832.11	228.20
832.43	228.16
832.75	228.14
833.06	228.24
833.38	228.19
833.69	228.17
834.01	228.18
834.32	228.16
834.64	228.15
834.96	228.14
835.27	228.15
835.59	228.12
835.90	228.12
836.22	228.13
836.53	228.09
836.85	228.07
837.16	228.25
837.48	228.27
837.79	228.34
838.11	228.35
838.42	228.35
838.74	228.40
839.05	228.40
839.37	228.43
839.68	228.33
840.00	228.32
840.31	228.37
840.63	228.32
840.94	228.35
841.26	228.35
841.57	228.39
841.88	228.42
842.20	228.40
842.51	228.34
842.83	228.38
843.14	228.55
843.46	228.54
843.77	228.45
844.08	228.45
844.40	228.40
844.71	228.40
845.03	228.38
845.34	228.37
845.65	228.36
845.97	228.38
846.28	228.42
846.60	228.44
846.91	228.41
847.22	228.43
847.54	228.46
847.85	228.45
848.16	228.42
848.48	228.37
848.79	228.44
849.10	228.50
849.42	228.45
849.73	228.28
850.04	228.28
850.36	228.21
850.67	228.24
850.98	228.26
851.30	228.24
851.61	228.24
851.92	228.23
852.23	228.31
852.55	228.31
852.86	228.30
853.17	228.31
853.49	228.32
853.80	228.34
854.11	228.34
854.42	228.36
854.74	228.36
855.05	228.37
855.36	228.24
855.67	228.22
855.99	228.23
856.30	228.42
856.61	228.42
856.92	228.40
857.23	228.36
857.55	228.34
857.86	228.33
858.17	228.36
858.48	228.33
858.79	228.24
859.11	228.22
859.42	228.18
859.73	228.13
860.04	228.11
860.35	228.05
860.66	227.98
860.98	227.97
861.29	227.96
861.60	227.93
861.91	227.98
862.22	227.91
862.53	227.86
862.84	227.66
863.16	227.67
863.47	227.63
863.78	227.59
864.09	227.58
864.40	227.56
864.71	227.54
865.02	227.53
865.33	227.54
865.64	227.52
865.95	227.52
866.27	227.62
866.58	227.59
866.89	227.63
867.20	227.63
867.51	227.59
867.82	227.56
868.13	227.62
868.44	227.58
868.75	227.64
869.06	227.66
869.37	227.67
869.68	227.63
869.99	227.67
870.30	227.68
870.61	227.70
870.92	227.68
871.23	227.67
871.54	227.70
871.85	227.70
872.16	227.73
872.47	227.73
872.78	227.63
873.09	227.67
873.40	227.63
873.71	227.63
874.02	227.67
874.33	227.68
874.64	227.65
874.95	227.70
875.26	227.70
875.56	227.73
875.87	227.73
876.18	227.75
876.49	227.94
876.80	227.94
877.11	227.93
877.42	227.93
877.73	227.95
878.04	227.94
878.35	227.95
878.66	227.93
878.96	227.93
879.27	227.92
879.58	227.93
879.89	227.93
880.20	228.01
880.51	228.02
880.82	228.03
881.12	228.06
881.43	228.01
881.74	227.98
882.05	227.97
882.36	227.99
882.67	228.01
882.97	227.81
883.28	227.81
883.59	227.81
883.90	227.85
884.21	227.89
884.51	227.88
884.82	227.89
885.13	227.90
885.44	227.92
885.74	227.95
886.05	227.93
886.36	227.96
886.67	227.89
886.98	227.96
887.28	227.98
887.59	227.96
887.90	228.00
888.20	227.99
888.51	228.02
888.82	227.98
889.13	228.00
889.43	228.17
889.74	228.15
890.05	228.16
890.35	228.13
890.66	228.09
890.97	228.08
891.28	228.05
891.58	228.05
891.89	228.03
892.20	227.99
892.50	227.98
892.81	227.94
893.12	227.93
893.42	227.83
893.73	227.81
894.04	227.80
894.34	227.80
894.65	227.78
894.95	227.75
895.26	227.73
895.57	227.79
895.87	227.58
896.18	227.59
896.48	227.60
896.79	227.59
897.10	227.61
897.40	227.58
897.71	227.58
898.01	227.56
898.32	227.57
898.63	227.56
898.93	227.56
899.24	227.54
899.54	227.52
899.85	227.47
900.15	227.47
900.46	227.43
900.76	227.43
901.07	227.40
901.38	227.37
901.68	227.39
901.99	227.30
902.29	227.33
902.60	227.29
902.90	227.24
903.21	227.25
903.51	227.20
903.82	227.25
904.12	227.25
904.43	227.23
904.73	227.21
905.03	227.22
905.34	227.37
905.64	227.37
905.95	227.38
906.25	227.39
906.56	227.37
906.86	227.39
907.17	227.36
907.47	227.39
907.77	227.39
908.08	227.35
908.38	227.33
908.69	227.34
908.99	227.38
909.30	227.39
909.60	227.36
909.90	227.38
910.21	227.31
910.51	227.29
910.81	227.29
911.12	227.31
911.42	227.31
911.73	227.16
912.03	227.16
912.33	227.19
912.64	227.21
912.94	227.19
913.24	227.16
913.55	227.17
913.85	227.14
914.15	227.19
914.46	227.21
914.76	227.21
915.06	227.21
915.37	227.19
915.67	227.18
915.97	227.20
916.27	227.18
916.58	227.24
916.88	227.25
917.18	227.27
917.49	227.39
917.79	227.40
918.09	227.43
918.39	227.48
918.70	227.48
919.00	227.46
919.30	227.56
919.60	227.57
919.91	227.57
920.21	227.60
920.51	227.56
920.81	227.54
921.12	227.58
921.42	227.59
921.72	227.58
922.02	227.59
922.32	227.63
922.63	227.63
922.93	227.70
923.23	227.71
923.53	227.70
923.83	227.58
924.13	227.58
924.44	227.58
924.74	227.61
925.04	227.66
925.34	227.67
925.64	227.61
925.94	227.62
926.24	227.72
926.55	227.72
926.85	227.77
927.15	227.80
927.45	227.81
927.75	227.78
928.05	227.83
928.35	227.83
928.65	227.86
928.95	227.89
929.26	227.81
929.56	227.84
929.86	227.87
930.16	227.85
930.46	227.84
930.76	227.84
931.06	227.75
931.36	227.71
931.66	227.73
931.96	227.73
932.26	227.75
932.56	227.66
932.86	227.65
933.16	227.61
933.46	227.59
933.76	227.55
934.06	227.60
934.36	227.63
934.66	227.62
934.96	227.57
935.26	227.53
935.56	227.55
935.86	227.47
936.16	227.41
936.46	227.39
936.76	227.38
937.06	227.32
937.36	227.34
937.66	227.32
937.96	227.30
938.26	227.24
938.56	227.23
938.86	227.22
939.16	227.23
939.46	227.26
939.76	227.24
940.06	227.23
940.35	227.18
940.65	227.08
940.95	227.10
941.25	227.05
941.55	227.05
941.85	227.02
942.15	227.06
942.45	227.10
942.75	227.08
943.04	227.04
943.34	227.09
943.64	227.03
943.94	227.00
944.24	227.00
944.54	226.99
944.84	226.97
945.13	226.93
945.43	226.90
945.73	226.86
946.03	226.84
946.33	226.81
946.62	226.81
946.92	226.79
947.22	226.78
947.52	226.80
947.82	226.82
948.11	226.80
948.41	226.77
948.71	226.74
949.01	226.76
949.31	226.79
949.60	226.78
949.90	226.82
950.20	226.82
950.50	226.80
950.79	226.81
951.09	226.83
951.39	226.83
951.69	226.82
951.98	226.86
952.28	226.89
952.58	226.91
952.87	226.88
953.17	226.94
953.47	226.91
953.76	226.92
954.06	226.88
954.36	226.87
954.66	226.86
954.95	226.90
955.25	226.93
955.55	226.96
955.84	226.94
956.14	226.95
956.44	226.98
956.73	226.98
957.03	227.02
957.32	227.05
957.62	227.07
957.92	227.13
958.21	227.11
958.51	227.33
958.81	227.36
959.10	227.41
959.40	227.45
959.69	227.49
959.99	227.52
960.29	227.55
960.58	227.55
960.88	227.66
961.17	227.67
961.47	227.69
961.76	227.66
962.06	227.70
962.36	227.72
962.65	227.74
962.95	227.78
963.24	227.77
963.54	227.78
963.83	227.79
964.13	227.78
964.42	227.80
964.72	227.64
965.01	227.62
965.31	227.63
965.60	227.59
965.90	227.69
966.19	227.69
966.49	227.70
966.78	227.71
967.08	227.69
967.37	227.69
967.67	227.66
967.96	227.72
968.26	227.70
968.55	227.70
968.85	227.69
969.14	227.68
969.43	227.68
969.73	227.65
970.02	227.64
970.32	227.63
970.61	227.58
970.91	227.53
971.20	227.50
971.49	227.47
971.79	227.48
972.08	227.33
972.38	227.30
972.67	227.29
972.96	227.31
973.26	227.23
973.55	227.26
973.85	227.25
974.14	227.21
974.43	227.23
974.73	227.20
975.02	227.16
975.31	227.17
975.61	227.13
975.90	227.09
976.19	227.07
976.49	227.08
976.78	227.09
977.07	227.06
977.37	227.09
977.66	227.11
977.95	227.06
978.24	227.07
978.54	227.11
978.83	227.10
979.12	227.06
979.42	227.06
979.71	227.02
980.00	227.01
980.29	227.01
980.59	226.94
980.88	226.96
981.17	226.95
981.46	226.94
981.76	226.96
982.05	227.03
982.34	227.02
982.63	227.03
982.93	227.03
983.22	227.09
983.51	227.09
983.80	227.09
984.09	227.12
984.39	227.11
984.68	227.05
984.97	227.06
985.26	227.06
985.55	227.10
985.85	227.07
986.14	227.09
986.43	227.12
986.72	227.14
987.01	227.08
987.30	227.08
987.59	227.05
987.89	227.05
988.18	227.00
988.47	227.00
988.76	226.97
989.05	226.95
989.34	226.93
989.63	226.98
989.92	226.95
990.22	226.95
990.51	226.98
990.80	227.01
991.09	227.03
991.38	227.07
991.67	227.04
991.96	227.02
992.25	227.04
992.54	227.01
992.83	227.02
993.12	227.04
993.41	227.09
993.70	227.19
993.99	227.23
994.28	227.28
994.58	227.31
994.87	227.33
995.16	227.38
995.45	227.37
995.74	227.31
996.03	227.36
996.32	227.40
996.61	227.44
996.90	227.45
997.19	227.43
997.48	227.44
997.77	227.45
998.06	227.50
998.34	227.47
998.63	227.48
998.92	227.49
999.21	227.55
999.50	227.53
999.79	227.47
1000.08	227.46
1000.37	227.45
1000.66	227.43
1000.95	227.47
1001.24	227.46
1001.53	227.47
1001.82	227.49
1002.11	227.44
1002.40	227.44
1002.68	227.47
1002.97	227.58
1003.26	227.58
1003.55	227.54
1003.84	227.54
1004.13	227.59
1004.42	227.59
1004.71	227.59
1004.99	227.60
1005.28	227.60
1005.57	227.58
1005.86	227.55
1006.15	227.54
1006.44	227.51
1006.72	227.52
1007.01	227.48
1007.30	227.46
1007.59	227.44
1007.88	227.42
1008.17	227.43
1008.45	227.37
1008.74	227.30
1009.03	227.22
1009.32	227.21
1009.60	227.21
1009.89	227.19
1010.18	227.09
1010.47	227.07
1010.76	227.04
1011.04	227.01
1011.33	227.00
1011.62	227.01
1011.91	227.01
1012.19	227.00
1012.48	227.00
1012.77	227.00
1013.05	227.03
1013.34	227.01
1013.63	226.97
1013.92	226.97
1014.20	226.93
1014.49	226.92
1014.78	226.92
1015.06	226.84
1015.35	226.83
1015.64	226.81
1015.92	226.81
1016.21	226.83
1016.50	226.81
1016.78	226.83
1017.07	226.84
1017.36	226.79
1017.64	226.78
1017.93	226.77
1018.22	226.74
1018.50	226.71
1018.79	226.68
1019.08	226.63
1019.36	226.63
1019.65	226.63
1019.93	226.67
1020.22	226.70
1020.51	226.80
1020.79	226.75
1021.08	226.30
1021.36	226.17
1021.65	226.72
1021.94	226.55
1022.22	226.70
1022.51	226.60
1022.79	227.50
1023.08	226.92
1023.36	228.88
1023.65	226.06
>>>>>End Processed Spectral Data<<<<<
